   224
    320.0   0.18979   0.04687
    330.0   0.20042   0.02937
    340.0   0.21157   0.01905
    350.0   0.22272   0.01376
    360.0   0.22940   0.00977
    370.0   0.23544   0.00745
    380.0   0.23870   0.00620
    390.0   0.24070   0.00641
    400.0   0.24141   0.00397
    410.0   0.24231   0.00327
    420.0   0.24351   0.00307
    430.0   0.24496   0.00290
    440.0   0.24673   0.00275
    450.0   0.24798   0.00281
    460.0   0.24888   0.00274
    470.0   0.24993   0.00257
    480.0   0.25088   0.00269
    490.0   0.25177   0.00268
    500.0   0.25301   0.00263
    510.0   0.25423   0.00253
    520.0   0.25555   0.00248
    530.0   0.25698   0.00257
    540.0   0.25848   0.00252
    550.0   0.25973   0.00244
    560.0   0.26070   0.00259
    570.0   0.26147   0.00242
    580.0   0.26203   0.00261
    590.0   0.26271   0.00250
    600.0   0.26257   0.00245
    610.0   0.26304   0.00236
    620.0   0.26323   0.00246
    630.0   0.26332   0.00231
    640.0   0.26340   0.00233
    650.0   0.26323   0.00241
    660.0   0.26327   0.00243
    670.0   0.26281   0.00239
    680.0   0.26274   0.00234
    690.0   0.26226   0.00237
    700.0   0.26156   0.00232
    710.0   0.26112   0.00236
    720.0   0.26073   0.00241
    730.0   0.25981   0.00241
    740.0   0.25961   0.00240
    750.0   0.25896   0.00241
    760.0   0.25876   0.00232
    770.0   0.25855   0.00246
    780.0   0.25807   0.00268
    790.0   0.25763   0.00263
    800.0   0.25666   0.00423
    810.0   0.25693   0.00447
    820.0   0.25662   0.00500
    830.0   0.25675   0.00495
    840.0   0.25566   0.00473
    850.0   0.25535   0.00460
    860.0   0.25511   0.00496
    870.0   0.25386   0.00393
    880.0   0.25316   0.00382
    890.0   0.25357   0.00304
    900.0   0.25284   0.00272
    910.0   0.25304   0.00254
    920.0   0.25271   0.00204
    930.0   0.25191   0.00245
    940.0   0.25183   0.00223
    950.0   0.25157   0.00229
    960.0   0.25181   0.00232
    970.0   0.25130   0.00205
    980.0   0.25160   0.00202
    990.0   0.25088   0.00217
   1000.0   0.25068   0.00198
   1010.0   0.25061   0.00206
   1020.0   0.24986   0.00178
   1030.0   0.25004   0.00184
   1040.0   0.25032   0.00202
   1050.0   0.25015   0.00186
   1060.0   0.24932   0.00195
   1070.0   0.24874   0.00197
   1080.0   0.24847   0.00190
   1090.0   0.24857   0.00190
   1100.0   0.24818   0.00190
   1110.0   0.24772   0.00195
   1120.0   0.24812   0.00188
   1130.0   0.24793   0.00170
   1140.0   0.24691   0.00189
   1150.0   0.24731   0.00184
   1160.0   0.24655   0.00192
   1170.0   0.24647   0.00202
   1180.0   0.24646   0.00190
   1190.0   0.24618   0.00186
   1200.0   0.24552   0.00185
   1210.0   0.24574   0.00178
   1220.0   0.24475   0.00212
   1230.0   0.24467   0.00179
   1240.0   0.24450   0.00185
   1250.0   0.24429   0.00159
   1260.0   0.24326   0.00176
   1270.0   0.24339   0.00175
   1280.0   0.24240   0.00168
   1290.0   0.24222   0.00160
   1300.0   0.24202   0.00154
   1310.0   0.24204   0.00145
   1320.0   0.24070   0.00170
   1330.0   0.24081   0.00167
   1340.0   0.24051   0.00158
   1350.0   0.23992   0.00152
   1360.0   0.23926   0.00146
   1370.0   0.23838   0.00166
   1380.0   0.23852   0.00161
   1390.0   0.23728   0.00160
   1400.0   0.23686   0.00165
   1410.0   0.23626   0.00158
   1420.0   0.23594   0.00166
   1430.0   0.23572   0.00167
   1440.0   0.23521   0.00154
   1450.0   0.23483   0.00151
   1460.0   0.23485   0.00146
   1470.0   0.23393   0.00155
   1480.0   0.23454   0.00163
   1490.0   0.23401   0.00157
   1500.0   0.23428   0.00166
   1510.0   0.23422   0.00169
   1520.0   0.23335   0.00151
   1530.0   0.23402   0.00168
   1540.0   0.23336   0.00163
   1550.0   0.23301   0.00166
   1560.0   0.23277   0.00163
   1570.0   0.23257   0.00167
   1580.0   0.23254   0.00178
   1590.0   0.23214   0.00164
   1600.0   0.23234   0.00189
   1610.0   0.23159   0.00178
   1620.0   0.23137   0.00160
   1630.0   0.23134   0.00175
   1640.0   0.23096   0.00176
   1650.0   0.23028   0.00176
   1660.0   0.23053   0.00171
   1670.0   0.22987   0.00201
   1680.0   0.23031   0.00180
   1690.0   0.22898   0.00202
   1700.0   0.22934   0.00191
   1710.0   0.22903   0.00191
   1720.0   0.22860   0.00190
   1730.0   0.22857   0.00205
   1740.0   0.22790   0.00181
   1750.0   0.22775   0.00185
   1760.0   0.22809   0.00195
   1770.0   0.22639   0.00191
   1780.0   0.22730   0.00206
   1790.0   0.22669   0.00200
   1800.0   0.22574   0.00195
   1810.0   0.22630   0.00213
   1820.0   0.22533   0.00202
   1830.0   0.22587   0.00213
   1840.0   0.22493   0.00208
   1850.0   0.22514   0.00221
   1860.0   0.22411   0.00182
   1870.0   0.22352   0.00220
   1880.0   0.22181   0.00207
   1890.0   0.22068   0.00207
   1900.0   0.21686   0.00222
   1910.0   0.21456   0.00239
   1920.0   0.21292   0.00219
   1930.0   0.21158   0.00196
   1940.0   0.21150   0.00210
   1950.0   0.21213   0.00196
   1960.0   0.21248   0.00218
   1970.0   0.21256   0.00210
   1980.0   0.21359   0.00230
   1990.0   0.21397   0.00240
   2000.0   0.21386   0.00231
   2010.0   0.21496   0.00182
   2020.0   0.21590   0.00175
   2030.0   0.21531   0.00171
   2040.0   0.21545   0.00211
   2050.0   0.21581   0.00226
   2060.0   0.21516   0.00221
   2070.0   0.21578   0.00216
   2080.0   0.21542   0.00180
   2090.0   0.21482   0.00236
   2100.0   0.21507   0.00214
   2110.0   0.21551   0.00220
   2120.0   0.21489   0.00223
   2130.0   0.21474   0.00198
   2140.0   0.21411   0.00192
   2150.0   0.21382   0.00212
   2160.0   0.21344   0.00194
   2170.0   0.21452   0.00216
   2180.0   0.21272   0.00222
   2190.0   0.21256   0.00207
   2200.0   0.21213   0.00210
   2210.0   0.21144   0.00219
   2220.0   0.21144   0.00220
   2230.0   0.21029   0.00229
   2240.0   0.20999   0.00215
   2250.0   0.20995   0.00230
   2260.0   0.20925   0.00240
   2270.0   0.20909   0.00222
   2280.0   0.20814   0.00214
   2290.0   0.20787   0.00232
   2300.0   0.20759   0.00221
   2310.0   0.20676   0.00257
   2320.0   0.20640   0.00247
   2330.0   0.20625   0.00224
   2340.0   0.20611   0.00220
   2350.0   0.20509   0.00260
   2360.0   0.20519   0.00270
   2370.0   0.20375   0.00247
   2380.0   0.20275   0.00270
   2390.0   0.20161   0.00263
   2400.0   0.20118   0.00262
   2410.0   0.20117   0.00257
   2420.0   0.19970   0.00265
   2430.0   0.19925   0.00294
   2440.0   0.19854   0.00276
   2450.0   0.19735   0.00238
   2460.0   0.19559   0.00275
   2470.0   0.19487   0.00249
   2480.0   0.19524   0.00202
   2490.0   0.19311   0.00214
   2500.0   0.19219   0.00207
   2510.0   0.19095   0.00226
   2520.0   0.19004   0.00225
   2530.0   0.18995   0.00239
   2540.0   0.18918   0.00276
   2550.0   0.18776   0.00271



 C1AR03A             .ASC                        

 AR-ASR-003-A                                                            
 ALHA78113,76                                                            
 125-500 um                                                              
 * User: ASR                                                             
 * Research Type: PGG,                                                   
 * NASA PI/CoI or Sponsor: ASR                                           
 * BVC: Visitor                                                          
 * Public Release Date: 12/19/2009                                       
 * Run Mode: All Wavelengths for Each Sample                             
 * Stage Type: Automatic                                                 
 * Spinning: Yes                                                         
 * Aperture Size: 7.0 mm                                                 
 * Scrambler: In                                                         
 * Depolarizer: Out                                                      
 RATIOS ADJUSTED USING NBS HALON CALIBRATION TABLE                       

 Source Ang: 30.00   Detect Ang:  0.00  Volt: 0.777
 Date: 20-DEC-06   Time: 14:48:20
