   224
    320.0   0.30349   0.04366
    330.0   0.30865   0.02785
    340.0   0.31890   0.01955
    350.0   0.32274   0.01361
    360.0   0.32906   0.01013
    370.0   0.33097   0.00765
    380.0   0.33484   0.00681
    390.0   0.33916   0.00693
    400.0   0.34218   0.00465
    410.0   0.34462   0.00391
    420.0   0.34737   0.00388
    430.0   0.35179   0.00361
    440.0   0.35508   0.00382
    450.0   0.35857   0.00359
    460.0   0.36071   0.00394
    470.0   0.36296   0.00359
    480.0   0.36443   0.00362
    490.0   0.36699   0.00352
    500.0   0.36930   0.00389
    510.0   0.37262   0.00365
    520.0   0.37526   0.00378
    530.0   0.37834   0.00374
    540.0   0.38078   0.00372
    550.0   0.38374   0.00376
    560.0   0.38490   0.00392
    570.0   0.38739   0.00364
    580.0   0.38820   0.00368
    590.0   0.38960   0.00374
    600.0   0.39012   0.00360
    610.0   0.39121   0.00369
    620.0   0.39130   0.00364
    630.0   0.39253   0.00364
    640.0   0.39267   0.00377
    650.0   0.39333   0.00352
    660.0   0.39353   0.00387
    670.0   0.39407   0.00371
    680.0   0.39467   0.00398
    690.0   0.39491   0.00387
    700.0   0.39513   0.00385
    710.0   0.39522   0.00383
    720.0   0.39605   0.00391
    730.0   0.39577   0.00377
    740.0   0.39596   0.00384
    750.0   0.39561   0.00410
    760.0   0.39595   0.00400
    770.0   0.39651   0.00419
    780.0   0.39618   0.00412
    790.0   0.39592   0.00412
    800.0   0.39578   0.00632
    810.0   0.39524   0.00665
    820.0   0.39588   0.00671
    830.0   0.39567   0.00635
    840.0   0.39436   0.00613
    850.0   0.39511   0.00616
    860.0   0.39501   0.00687
    870.0   0.39524   0.00636
    880.0   0.39390   0.00583
    890.0   0.39498   0.00527
    900.0   0.39504   0.00549
    910.0   0.39405   0.00408
    920.0   0.39480   0.00426
    930.0   0.39464   0.00350
    940.0   0.39416   0.00437
    950.0   0.39469   0.00386
    960.0   0.39480   0.00367
    970.0   0.39539   0.00378
    980.0   0.39551   0.00372
    990.0   0.39529   0.00353
   1000.0   0.39571   0.00366
   1010.0   0.39534   0.00365
   1020.0   0.39632   0.00407
   1030.0   0.39662   0.00383
   1040.0   0.39617   0.00413
   1050.0   0.39591   0.00423
   1060.0   0.39715   0.00413
   1070.0   0.39688   0.00352
   1080.0   0.39724   0.00387
   1090.0   0.39678   0.00379
   1100.0   0.39729   0.00372
   1110.0   0.39810   0.00364
   1120.0   0.39877   0.00395
   1130.0   0.39909   0.00408
   1140.0   0.39924   0.00417
   1150.0   0.39894   0.00438
   1160.0   0.39967   0.00385
   1170.0   0.39945   0.00409
   1180.0   0.39936   0.00367
   1190.0   0.40010   0.00400
   1200.0   0.40060   0.00396
   1210.0   0.40105   0.00374
   1220.0   0.40137   0.00384
   1230.0   0.40095   0.00356
   1240.0   0.40087   0.00393
   1250.0   0.40109   0.00365
   1260.0   0.40125   0.00358
   1270.0   0.40116   0.00435
   1280.0   0.40158   0.00400
   1290.0   0.40154   0.00395
   1300.0   0.40131   0.00423
   1310.0   0.40139   0.00395
   1320.0   0.40161   0.00410
   1330.0   0.40172   0.00381
   1340.0   0.40162   0.00408
   1350.0   0.40163   0.00390
   1360.0   0.40160   0.00415
   1370.0   0.40089   0.00395
   1380.0   0.40142   0.00389
   1390.0   0.40155   0.00397
   1400.0   0.40121   0.00423
   1410.0   0.40185   0.00369
   1420.0   0.40152   0.00401
   1430.0   0.40240   0.00396
   1440.0   0.40259   0.00388
   1450.0   0.40307   0.00409
   1460.0   0.40267   0.00442
   1470.0   0.40230   0.00378
   1480.0   0.40199   0.00362
   1490.0   0.40217   0.00376
   1500.0   0.40246   0.00386
   1510.0   0.40348   0.00414
   1520.0   0.40335   0.00433
   1530.0   0.40303   0.00386
   1540.0   0.40367   0.00400
   1550.0   0.40318   0.00462
   1560.0   0.40392   0.00439
   1570.0   0.40390   0.00447
   1580.0   0.40338   0.00447
   1590.0   0.40360   0.00395
   1600.0   0.40359   0.00422
   1610.0   0.40419   0.00470
   1620.0   0.40488   0.00410
   1630.0   0.40358   0.00467
   1640.0   0.40367   0.00430
   1650.0   0.40411   0.00462
   1660.0   0.40482   0.00471
   1670.0   0.40472   0.00475
   1680.0   0.40459   0.00432
   1690.0   0.40475   0.00481
   1700.0   0.40578   0.00363
   1710.0   0.40563   0.00370
   1720.0   0.40523   0.00332
   1730.0   0.40585   0.00357
   1740.0   0.40512   0.00338
   1750.0   0.40543   0.00360
   1760.0   0.40574   0.00247
   1770.0   0.40564   0.00261
   1780.0   0.40570   0.00246
   1790.0   0.40578   0.00240
   1800.0   0.40579   0.00238
   1810.0   0.40603   0.00251
   1820.0   0.40568   0.00241
   1830.0   0.40535   0.00253
   1840.0   0.40540   0.00272
   1850.0   0.40549   0.00266
   1860.0   0.40520   0.00259
   1870.0   0.40476   0.00283
   1880.0   0.40445   0.00275
   1890.0   0.40354   0.00248
   1900.0   0.40263   0.00260
   1910.0   0.40173   0.00271
   1920.0   0.40181   0.00268
   1930.0   0.40096   0.00276
   1940.0   0.40123   0.00284
   1950.0   0.40115   0.00262
   1960.0   0.40156   0.00271
   1970.0   0.40149   0.00303
   1980.0   0.40199   0.00276
   1990.0   0.40348   0.00267
   2000.0   0.40239   0.00273
   2010.0   0.40344   0.00278
   2020.0   0.40363   0.00266
   2030.0   0.40364   0.00287
   2040.0   0.40414   0.00296
   2050.0   0.40381   0.00273
   2060.0   0.40442   0.00283
   2070.0   0.40450   0.00298
   2080.0   0.40423   0.00289
   2090.0   0.40428   0.00329
   2100.0   0.40397   0.00278
   2110.0   0.40462   0.00314
   2120.0   0.40421   0.00325
   2130.0   0.40461   0.00314
   2140.0   0.40421   0.00276
   2150.0   0.40537   0.00300
   2160.0   0.40484   0.00289
   2170.0   0.40532   0.00280
   2180.0   0.40412   0.00315
   2190.0   0.40494   0.00293
   2200.0   0.40365   0.00351
   2210.0   0.40457   0.00303
   2220.0   0.40421   0.00299
   2230.0   0.40397   0.00311
   2240.0   0.40453   0.00322
   2250.0   0.40403   0.00294
   2260.0   0.40451   0.00296
   2270.0   0.40287   0.00350
   2280.0   0.40425   0.00335
   2290.0   0.40395   0.00348
   2300.0   0.40320   0.00347
   2310.0   0.40353   0.00346
   2320.0   0.40238   0.00323
   2330.0   0.40315   0.00316
   2340.0   0.40355   0.00348
   2350.0   0.40249   0.00364
   2360.0   0.40320   0.00337
   2370.0   0.40299   0.00362
   2380.0   0.40134   0.00419
   2390.0   0.40203   0.00387
   2400.0   0.40159   0.00363
   2410.0   0.40032   0.00346
   2420.0   0.40055   0.00347
   2430.0   0.40050   0.00391
   2440.0   0.40018   0.00372
   2450.0   0.39936   0.00307
   2460.0   0.39851   0.00383
   2470.0   0.39746   0.00376
   2480.0   0.39953   0.00341
   2490.0   0.39829   0.00350
   2500.0   0.39565   0.00388
   2510.0   0.39650   0.00385
   2520.0   0.39556   0.00348
   2530.0   0.39673   0.00420
   2540.0   0.39663   0.00438
   2550.0   0.39682   0.00392



 C1AR02C             .ASC                        

 AR-ASR-002-C                                                            
 ALHA78113,74 aubrite                                                    
 <45 um                                                                  
 * User: ASR                                                             
 * Research Type: PGG,                                                   
 * NASA PI/CoI or Sponsor: ASR                                           
 * BVC: Visitor                                                          
 * Public Release Date: 02/02/2010                                       
 * Run Mode: All Samples at Each Wavelength                              
 * Stage Type: Automatic                                                 
 * Spinning: Yes                                                         
 * Aperture Size: 3.5 mm                                                 
 * Scrambler: In                                                         
 * Depolarizer: Out                                                      
 RATIOS ADJUSTED USING NBS HALON CALIBRATION TABLE                       

 Source Ang: 30.00   Detect Ang:  0.00  Volt: 0.777
 Date: 01-FEB-07   Time: 12:28:47
