       224
    320.00   .034743   .004533
    330.00   .035702   .003572
    340.00   .036417   .003766
    350.00   .037324   .002944
    360.00   .038850   .001178
    370.00   .040487   .000858
    380.00   .041871   .000755
    390.00   .043845   .000669
    400.00   .045167   .002058
    410.00   .046613   .001563
    420.00   .048152   .001188
    430.00   .049398   .001344
    440.00   .050732   .001182
    450.00   .051820   .001051
    460.00   .052836   .000967
    470.00   .053527   .000948
    480.00   .054487   .000861
    490.00   .055535   .000843
    500.00   .056572   .000819
    510.00   .057665   .000792
    520.00   .058615   .000765
    530.00   .059780   .000804
    540.00   .060542   .000750
    550.00   .061352   .000760
    560.00   .061944   .000785
    570.00   .062598   .000772
    580.00   .063110   .000747
    590.00   .063511   .000768
    600.00   .064014   .000829
    610.00   .064250   .000766
    620.00   .064635   .000847
    630.00   .064792   .000854
    640.00   .065031   .000840
    650.00   .065249   .000876
    660.00   .065407   .000971
    670.00   .065629   .000983
    680.00   .065763   .001020
    690.00   .066055   .001013
    700.00   .066171   .001046
    710.00   .066293   .001124
    720.00   .066438   .001173
    730.00   .066443   .001253
    740.00   .066641   .001335
    750.00   .066713   .001540
    760.00   .066609   .001664
    770.00   .066669   .002003
    780.00   .067009   .002226
    790.00   .066962   .002486
    800.00   .066890   .002698
    810.00   .066692   .003017
    820.00   .066879   .003224
    830.00   .067068   .005792
    840.00   .066923   .005476
    850.00   .066864   .005088
    860.00   .066867   .004703
    870.00   .066722   .005008
    880.00   .066686   .004313
    890.00   .066706   .003705
    900.00   .066709   .003261
    910.00   .066710   .002922
    920.00   .066739   .002693
    930.00   .066824   .002460
    940.00   .066866   .002233
    950.00   .066868   .001978
    960.00   .067023   .001686
    970.00   .067047   .001530
    980.00   .067112   .001387
    990.00   .067177   .001256
   1000.00   .067255   .001156
   1010.00   .067350   .001201
   1020.00   .067480   .001233
   1030.00   .067567   .001276
   1040.00   .067638   .001337
   1050.00   .067745   .001376
   1060.00   .067806   .001294
   1070.00   .067959   .001229
   1080.00   .067927   .001143
   1090.00   .068028   .001123
   1100.00   .068101   .001079
   1110.00   .068198   .001058
   1120.00   .068338   .001008
   1130.00   .068350   .000988
   1140.00   .068483   .000912
   1150.00   .068564   .000912
   1160.00   .068606   .000843
   1170.00   .068632   .000853
   1180.00   .068701   .000835
   1190.00   .068785   .000842
   1200.00   .068807   .000889
   1210.00   .068741   .000850
   1220.00   .068867   .000808
   1230.00   .068874   .000788
   1240.00   .069009   .000746
   1250.00   .069027   .000780
   1260.00   .069008   .000810
   1270.00   .068977   .000827
   1280.00   .069171   .000838
   1290.00   .069180   .000806
   1300.00   .069279   .000796
   1310.00   .069266   .000709
   1320.00   .069311   .000785
   1330.00   .069434   .000814
   1340.00   .069525   .000851
   1350.00   .069437   .000811
   1360.00   .069510   .000864
   1370.00   .069503   .000837
   1380.00   .069576   .000806
   1390.00   .069680   .000805
   1400.00   .069613   .000808
   1410.00   .069682   .000990
   1420.00   .069781   .000875
   1430.00   .069789   .000891
   1440.00   .069926   .000916
   1450.00   .069906   .000851
   1460.00   .069908   .000853
   1470.00   .069989   .000906
   1480.00   .070015   .000879
   1490.00   .070089   .000939
   1500.00   .070194   .000915
   1510.00   .070235   .000893
   1520.00   .070317   .000884
   1530.00   .070444   .000912
   1540.00   .070442   .000908
   1550.00   .070386   .000904
   1560.00   .070421   .000923
   1570.00   .070493   .000965
   1580.00   .070552   .000968
   1590.00   .070633   .000978
   1600.00   .070736   .000926
   1610.00   .070813   .000972
   1620.00   .071003   .000977
   1630.00   .070903   .000998
   1640.00   .070893   .001017
   1650.00   .071035   .001029
   1660.00   .071209   .000981
   1670.00   .071249   .001019
   1680.00   .071463   .001010
   1690.00   .071417   .001046
   1700.00   .071507   .000996
   1710.00   .071487   .001044
   1720.00   .071407   .000977
   1730.00   .071481   .001059
   1740.00   .071402   .001005
   1750.00   .071418   .001100
   1760.00   .071526   .000994
   1770.00   .071567   .000991
   1780.00   .071645   .000970
   1790.00   .071643   .000958
   1800.00   .071600   .001007
   1810.00   .071579   .000905
   1820.00   .071543   .000983
   1830.00   .071537   .000941
   1840.00   .071625   .001005
   1850.00   .071591   .000973
   1860.00   .071654   .000987
   1870.00   .071590   .001045
   1880.00   .071620   .000932
   1890.00   .071506   .001003
   1900.00   .071426   .001011
   1910.00   .071280   .000993
   1920.00   .071324   .001019
   1930.00   .071331   .001030
   1940.00   .071381   .001023
   1950.00   .071426   .000977
   1960.00   .071435   .001019
   1970.00   .071317   .001050
   1980.00   .071586   .000940
   1990.00   .071480   .000979
   2000.00   .071557   .000965
   2010.00   .071718   .000966
   2020.00   .071740   .000935
   2030.00   .071653   .000994
   2040.00   .071670   .000978
   2050.00   .071622   .000968
   2060.00   .071619   .000977
   2070.00   .071676   .001035
   2080.00   .071870   .001035
   2090.00   .071715   .001065
   2100.00   .071649   .001010
   2110.00   .071780   .000820
   2120.00   .071991   .000743
   2130.00   .071937   .000795
   2140.00   .072034   .000752
   2150.00   .072067   .000785
   2160.00   .072150   .000802
   2170.00   .072156   .000781
   2180.00   .072117   .000747
   2190.00   .072106   .000739
   2200.00   .072275   .000814
   2210.00   .072022   .000803
   2220.00   .072096   .000850
   2230.00   .072224   .000882
   2240.00   .072265   .000819
   2250.00   .072315   .000784
   2260.00   .072338   .000780
   2270.00   .072187   .000690
   2280.00   .072237   .000755
   2290.00   .072324   .000768
   2300.00   .072245   .000825
   2310.00   .072391   .000799
   2320.00   .072358   .000802
   2330.00   .072316   .000767
   2340.00   .072418   .000771
   2350.00   .072284   .000768
   2360.00   .072328   .000662
   2370.00   .072477   .000666
   2380.00   .072316   .000674
   2390.00   .072226   .000692
   2400.00   .072328   .000723
   2410.00   .072311   .000762
   2420.00   .072435   .000770
   2430.00   .072451   .000729
   2440.00   .072501   .000730
   2450.00   .072389   .000758
   2460.00   .072355   .000738
   2470.00   .072392   .000741
   2480.00   .072357   .000721
   2490.00   .072461   .000655
   2500.00   .072654   .000684
   2510.00   .072526   .000686
   2520.00   .072446   .000736
   2530.00   .072365   .000717
   2540.00   .072529   .000744
   2550.00   .072424   .000754



 C1TB161.ASC             

 TB-MDD-161
 EET 87746 (EH4) <125 um
 No depolarizer was used over the wavelength ranges of 320-400 & 1800-2550 nm
 Albedo adjusted to the visible range
 
 Source Ang:  30.00, Detect Ang:    .00, Volt:  .777
 Date: 02-DEC-19, Time: 15:28:34
 
 RATIOS ADJUSTED USING RELAB SPECTRALON CALIBRATION TABLE
