   224
    320.0   0.06054   0.00132
    330.0   0.06577   0.00091
    340.0   0.07181   0.00084
    350.0   0.07728   0.00104
    360.0   0.08369   0.00111
    370.0   0.08859   0.00102
    380.0   0.09399   0.00108
    390.0   0.09663   0.00102
    400.0   0.10326   0.00169
    410.0   0.10894   0.00139
    420.0   0.11308   0.00130
    430.0   0.11800   0.00133
    440.0   0.12259   0.00131
    450.0   0.12627   0.00127
    460.0   0.13031   0.00135
    470.0   0.13395   0.00157
    480.0   0.13795   0.00160
    490.0   0.14381   0.00165
    500.0   0.14765   0.00165
    510.0   0.15034   0.00185
    520.0   0.15453   0.00193
    530.0   0.15677   0.00251
    540.0   0.16064   0.00254
    550.0   0.16310   0.00295
    560.0   0.16608   0.00297
    570.0   0.17050   0.00211
    580.0   0.17251   0.00213
    590.0   0.17161   0.00141
    600.0   0.17348   0.00141
    610.0   0.17352   0.00135
    620.0   0.17518   0.00139
    630.0   0.17447   0.00181
    640.0   0.17630   0.00187
    650.0   0.17958   0.00243
    660.0   0.18094   0.00243
    670.0   0.18353   0.00300
    680.0   0.18495   0.00302
    690.0   0.18578   0.00286
    700.0   0.18661   0.00281
    710.0   0.19144   0.00321
    720.0   0.19189   0.00321
    730.0   0.19212   0.00233
    740.0   0.19183   0.00235
    750.0   0.19261   0.00185
    760.0   0.19178   0.00172
    770.0   0.18884   0.00184
    780.0   0.18657   0.00177
    790.0   0.18340   0.00153
    800.0   0.18000   0.00151
    810.0   0.17529   0.00132
    820.0   0.17097   0.00132
    830.0   0.16528   0.00126
    840.0   0.16071   0.00126
    850.0   0.15636   0.00118
    860.0   0.15240   0.00119
    870.0   0.14932   0.00343
    880.0   0.14591   0.00243
    890.0   0.14188   0.00380
    900.0   0.14075   0.00341
    910.0   0.14153   0.00221
    920.0   0.14192   0.00576
    930.0   0.14229   0.00061
    940.0   0.14194   0.00245
    950.0   0.14194   0.00318
    960.0   0.14298   0.00389
    970.0   0.14464   0.00220
    980.0   0.14694   0.00467
    990.0   0.14792   0.00397
   1000.0   0.14865   0.00544
   1010.0   0.14908   0.00270
   1020.0   0.14995   0.00401
   1030.0   0.15135   0.00112
   1040.0   0.15332   0.00261
   1050.0   0.15438   0.00506
   1060.0   0.15555   0.00254
   1070.0   0.15553   0.00199
   1080.0   0.15659   0.00332
   1090.0   0.15801   0.00210
   1100.0   0.16049   0.00128
   1110.0   0.16318   0.00118
   1120.0   0.16512   0.00073
   1130.0   0.16727   0.00100
   1140.0   0.16856   0.00307
   1150.0   0.17005   0.00082
   1160.0   0.17125   0.00370
   1170.0   0.17298   0.00585
   1180.0   0.17450   0.00447
   1190.0   0.17477   0.00663
   1200.0   0.17465   0.00736
   1210.0   0.17428   0.00565
   1220.0   0.17513   0.00742
   1230.0   0.17559   0.00533
   1240.0   0.17616   0.00854
   1250.0   0.17675   0.01168
   1260.0   0.17734   0.00805
   1270.0   0.17777   0.00686
   1280.0   0.17856   0.00796
   1290.0   0.17902   0.00525
   1300.0   0.17972   0.00523
   1310.0   0.18055   0.00287
   1320.0   0.18108   0.00636
   1330.0   0.18148   0.00701
   1340.0   0.18241   0.00814
   1350.0   0.18286   0.00823
   1360.0   0.18310   0.00737
   1370.0   0.18415   0.00749
   1380.0   0.18515   0.00758
   1390.0   0.18634   0.01019
   1400.0   0.18669   0.00734
   1410.0   0.18786   0.01084
   1420.0   0.18824   0.00482
   1430.0   0.18858   0.00673
   1440.0   0.18895   0.00815
   1450.0   0.18932   0.00344
   1460.0   0.18979   0.00331
   1470.0   0.19034   0.00583
   1480.0   0.19090   0.00786
   1490.0   0.19169   0.00920
   1500.0   0.19200   0.01096
   1510.0   0.19225   0.01201
   1520.0   0.19206   0.00859
   1530.0   0.19218   0.01005
   1540.0   0.19159   0.00951
   1550.0   0.19167   0.01021
   1560.0   0.19091   0.00939
   1570.0   0.19056   0.00826
   1580.0   0.18932   0.01073
   1590.0   0.18880   0.01069
   1600.0   0.18832   0.00987
   1610.0   0.18807   0.01120
   1620.0   0.18745   0.01070
   1630.0   0.18720   0.01033
   1640.0   0.18685   0.01117
   1650.0   0.18629   0.00753
   1660.0   0.18583   0.00811
   1670.0   0.18528   0.00814
   1680.0   0.18481   0.01003
   1690.0   0.18346   0.00863
   1700.0   0.18221   0.01017
   1710.0   0.18059   0.01092
   1720.0   0.17928   0.01098
   1730.0   0.17759   0.00672
   1740.0   0.17601   0.00780
   1750.0   0.17465   0.00676
   1760.0   0.17410   0.00826
   1770.0   0.17298   0.00733
   1780.0   0.17172   0.00803
   1790.0   0.17093   0.00513
   1800.0   0.16995   0.00524
   1810.0   0.16858   0.00396
   1820.0   0.16791   0.00693
   1830.0   0.16747   0.00343
   1840.0   0.16678   0.00507
   1850.0   0.16577   0.00580
   1860.0   0.16556   0.00047
   1870.0   0.16477   0.00386
   1880.0   0.16414   0.00462
   1890.0   0.16392   0.00602
   1900.0   0.16414   0.00642
   1910.0   0.16390   0.00449
   1920.0   0.16359   0.00331
   1930.0   0.16344   0.00479
   1940.0   0.16310   0.00686
   1950.0   0.16302   0.00608
   1960.0   0.16276   0.00583
   1970.0   0.16319   0.00580
   1980.0   0.16360   0.00623
   1990.0   0.16445   0.00945
   2000.0   0.16494   0.00300
   2010.0   0.16557   0.00476
   2020.0   0.16660   0.00304
   2030.0   0.16728   0.00751
   2040.0   0.16771   0.00650
   2050.0   0.16856   0.00406
   2060.0   0.16920   0.00417
   2070.0   0.16992   0.00422
   2080.0   0.17101   0.00395
   2090.0   0.17202   0.00449
   2100.0   0.17294   0.00625
   2110.0   0.17356   0.00646
   2120.0   0.17335   0.00575
   2130.0   0.17299   0.00420
   2140.0   0.17302   0.00586
   2150.0   0.17273   0.00304
   2160.0   0.17307   0.00422
   2170.0   0.17367   0.00275
   2180.0   0.17373   0.00235
   2190.0   0.17332   0.00328
   2200.0   0.17336   0.00823
   2210.0   0.17352   0.00534
   2220.0   0.17346   0.00744
   2230.0   0.17373   0.00530
   2240.0   0.17401   0.00220
   2250.0   0.17500   0.00278
   2260.0   0.17551   0.00304
   2270.0   0.17592   0.00255
   2280.0   0.17627   0.00176
   2290.0   0.17635   0.00287
   2300.0   0.17619   0.00187
   2310.0   0.17614   0.00287
   2320.0   0.17601   0.00062
   2330.0   0.17630   0.00340
   2340.0   0.17612   0.00373
   2350.0   0.17586   0.00190
   2360.0   0.17635   0.00316
   2370.0   0.17713   0.00098
   2380.0   0.17663   0.00023
   2390.0   0.17780   0.00224
   2400.0   0.17868   0.00303
   2410.0   0.17919   0.00428
   2420.0   0.18002   0.00493
   2430.0   0.18172   0.00520
   2440.0   0.18258   0.00448
   2450.0   0.18294   0.00543
   2460.0   0.18287   0.00451
   2470.0   0.18284   0.00535
   2480.0   0.18306   0.00400
   2490.0   0.18328   0.00935
   2500.0   0.18404   0.00492
   2510.0   0.18454   0.00608
   2520.0   0.18535   0.00952
   2530.0   0.18603   0.00815
   2540.0   0.18641   0.00361
   2550.0   0.18657   0.00631



 C1TB65      .ASC                        

 TB-TJM-065                                                              
 Atarra (L4) <150 um                                                     
 Smoothed (890-2550 nm)                                                  
 * User: THB                                                             
 * Research Type: Cosmochemistry, Active Missions, Asteroid-Meteorite,   
 * NASA PI/CoI or Sponsor: TJM                                           
 * BVC: Visitor                                                          
 * Public Release Date: 11/02/2004                                       
 * Run Mode: All Samples at Each Wavelength                              
 * Stage Type: Automatic                                                 
 * Spinning: Yes                                                         
 * Aperture Size: 7.0 mm                                                 
 * Scrambler: Out                                                        
 * Depolarizer: Out                                                      
 RATIOS ADJUSTED USING NBS HALON CALIBRATION TABLE                       

 Source Ang: 30.00   Detect Ang:  0.00  Volt: 0.777
 Date:  6-NOV-01   Time: 15:16:30
