   224
    320.0   0.09728   0.00147
    330.0   0.10652   0.00112
    340.0   0.11530   0.00091
    350.0   0.12341   0.00085
    360.0   0.13072   0.00079
    370.0   0.13679   0.00076
    380.0   0.14103   0.00076
    390.0   0.14442   0.00080
    400.0   0.14893   0.00155
    410.0   0.15137   0.00114
    420.0   0.15398   0.00101
    430.0   0.15610   0.00092
    440.0   0.15844   0.00088
    450.0   0.16029   0.00087
    460.0   0.16229   0.00085
    470.0   0.16404   0.00083
    480.0   0.16564   0.00083
    490.0   0.16707   0.00080
    500.0   0.16824   0.00081
    510.0   0.16957   0.00078
    520.0   0.17083   0.00080
    530.0   0.17212   0.00081
    540.0   0.17305   0.00084
    550.0   0.17391   0.00082
    560.0   0.17443   0.00083
    570.0   0.17500   0.00082
    580.0   0.17501   0.00080
    590.0   0.17554   0.00086
    600.0   0.17568   0.00083
    610.0   0.17616   0.00083
    620.0   0.17654   0.00085
    630.0   0.17700   0.00082
    640.0   0.17759   0.00089
    650.0   0.17830   0.00087
    660.0   0.17856   0.00087
    670.0   0.17909   0.00089
    680.0   0.17975   0.00087
    690.0   0.17999   0.00092
    700.0   0.18040   0.00089
    710.0   0.18055   0.00090
    720.0   0.18108   0.00092
    730.0   0.18081   0.00090
    740.0   0.18113   0.00096
    750.0   0.18084   0.00096
    760.0   0.18040   0.00102
    770.0   0.17961   0.00103
    780.0   0.17878   0.00105
    790.0   0.17763   0.00112
    800.0   0.17646   0.00112
    810.0   0.17481   0.00122
    820.0   0.17349   0.00126
    830.0   0.17122   0.00130
    840.0   0.16982   0.00130
    850.0   0.16777   0.00136
    860.0   0.16639   0.00139
    870.0   0.16421   0.00483
    880.0   0.16304   0.01015
    890.0   0.16191   0.01038
    900.0   0.16039   0.00235
    910.0   0.15853   0.00309
    920.0   0.15968   0.01302
    930.0   0.15977   0.00205
    940.0   0.15966   0.00673
    950.0   0.15996   0.00599
    960.0   0.16158   0.00492
    970.0   0.16181   0.01047
    980.0   0.16225   0.00382
    990.0   0.16331   0.00181
   1000.0   0.16397   0.00490
   1010.0   0.16484   0.00540
   1020.0   0.16569   0.00518
   1030.0   0.16670   0.00309
   1040.0   0.16732   0.00417
   1050.0   0.16805   0.00600
   1060.0   0.16869   0.00063
   1070.0   0.16914   0.00319
   1080.0   0.17008   0.00350
   1090.0   0.17062   0.00239
   1100.0   0.17165   0.00132
   1110.0   0.17228   0.00108
   1120.0   0.17329   0.00376
   1130.0   0.17440   0.00461
   1140.0   0.17473   0.00200
   1150.0   0.17484   0.00204
   1160.0   0.17559   0.00264
   1170.0   0.17612   0.00240
   1180.0   0.17599   0.00349
   1190.0   0.17614   0.00208
   1200.0   0.17694   0.00199
   1210.0   0.17723   0.00316
   1220.0   0.17824   0.00344
   1230.0   0.17857   0.00176
   1240.0   0.17845   0.00247
   1250.0   0.17922   0.00092
   1260.0   0.17938   0.00242
   1270.0   0.17927   0.00123
   1280.0   0.17919   0.00133
   1290.0   0.17984   0.00027
   1300.0   0.17966   0.00158
   1310.0   0.18047   0.00156
   1320.0   0.18091   0.00182
   1330.0   0.18128   0.00172
   1340.0   0.18223   0.00068
   1350.0   0.18272   0.00076
   1360.0   0.18254   0.00091
   1370.0   0.18306   0.00057
   1380.0   0.18370   0.00074
   1390.0   0.18359   0.00100
   1400.0   0.18366   0.00223
   1410.0   0.18458   0.00051
   1420.0   0.18455   0.00121
   1430.0   0.18511   0.00139
   1440.0   0.18574   0.00212
   1450.0   0.18593   0.00254
   1460.0   0.18603   0.00067
   1470.0   0.18626   0.00172
   1480.0   0.18615   0.00069
   1490.0   0.18621   0.00148
   1500.0   0.18642   0.00186
   1510.0   0.18639   0.00068
   1520.0   0.18690   0.00031
   1530.0   0.18674   0.00290
   1540.0   0.18641   0.00005
   1550.0   0.18635   0.00033
   1560.0   0.18644   0.00018
   1570.0   0.18630   0.00026
   1580.0   0.18636   0.00092
   1590.0   0.18631   0.00103
   1600.0   0.18612   0.00102
   1610.0   0.18599   0.00086
   1620.0   0.18584   0.00239
   1630.0   0.18528   0.00183
   1640.0   0.18594   0.00013
   1650.0   0.18542   0.00163
   1660.0   0.18488   0.00024
   1670.0   0.18455   0.00225
   1680.0   0.18464   0.00060
   1690.0   0.18381   0.00254
   1700.0   0.18379   0.00244
   1710.0   0.18339   0.00336
   1720.0   0.18267   0.00102
   1730.0   0.18184   0.00064
   1740.0   0.18116   0.00105
   1750.0   0.18092   0.00175
   1760.0   0.18038   0.00008
   1770.0   0.18038   0.00124
   1780.0   0.17982   0.00088
   1790.0   0.17977   0.00086
   1800.0   0.17898   0.00086
   1810.0   0.17896   0.00251
   1820.0   0.17864   0.00010
   1830.0   0.17875   0.00077
   1840.0   0.17841   0.00221
   1850.0   0.17814   0.00032
   1860.0   0.17800   0.00079
   1870.0   0.17810   0.00058
   1880.0   0.17768   0.00002
   1890.0   0.17766   0.00137
   1900.0   0.17768   0.00134
   1910.0   0.17793   0.00314
   1920.0   0.17786   0.00034
   1930.0   0.17819   0.00030
   1940.0   0.17812   0.00062
   1950.0   0.17873   0.00161
   1960.0   0.17879   0.00110
   1970.0   0.17863   0.00143
   1980.0   0.17866   0.00076
   1990.0   0.17889   0.00220
   2000.0   0.17934   0.00005
   2010.0   0.17969   0.00003
   2020.0   0.18031   0.00022
   2030.0   0.18056   0.00029
   2040.0   0.18104   0.00058
   2050.0   0.18107   0.00142
   2060.0   0.18085   0.00120
   2070.0   0.18056   0.00166
   2080.0   0.18098   0.00041
   2090.0   0.18133   0.00160
   2100.0   0.18178   0.00128
   2110.0   0.18225   0.00403
   2120.0   0.18272   0.00386
   2130.0   0.18256   0.00108
   2140.0   0.18220   0.00232
   2150.0   0.18228   0.00065
   2160.0   0.18251   0.00010
   2170.0   0.18318   0.00151
   2180.0   0.18352   0.00550
   2190.0   0.18364   0.00156
   2200.0   0.18394   0.00074
   2210.0   0.18419   0.00157
   2220.0   0.18438   0.00290
   2230.0   0.18477   0.00126
   2240.0   0.18494   0.00235
   2250.0   0.18538   0.00133
   2260.0   0.18562   0.00265
   2270.0   0.18587   0.00486
   2280.0   0.18583   0.00052
   2290.0   0.18660   0.00478
   2300.0   0.18667   0.00084
   2310.0   0.18650   0.00161
   2320.0   0.18642   0.00034
   2330.0   0.18671   0.00056
   2340.0   0.18598   0.00271
   2350.0   0.18559   0.00050
   2360.0   0.18613   0.00230
   2370.0   0.18668   0.00379
   2380.0   0.18676   0.00422
   2390.0   0.18690   0.00410
   2400.0   0.18677   0.00237
   2410.0   0.18698   0.00231
   2420.0   0.18579   0.00117
   2430.0   0.18546   0.00249
   2440.0   0.18623   0.00236
   2450.0   0.18717   0.00255
   2460.0   0.18743   0.00190
   2470.0   0.18917   0.00126
   2480.0   0.19030   0.00350
   2490.0   0.19114   0.00197
   2500.0   0.19203   0.00519
   2510.0   0.19256   0.00209
   2520.0   0.19270   0.00343
   2530.0   0.19392   0.00084
   2540.0   0.19427   0.00561
   2550.0   0.19766   0.00693



 C1TB95      .ASC                        

 TB-TJM-095                                                              
 Hedjaz (L3.7) <150 um                                                   
 5-point moving averaged (890-2550 nm)                                   
 * User: THB                                                             
 * Research Type: Cosmochemistry, Active Missions, Asteroid-Meteorite,   
 * NASA PI/CoI or Sponsor: TJM                                           
 * BVC: Visitor                                                          
 * Public Release Date: 12/21/2004                                       
 * Run Mode: All Samples at Each Wavelength                              
 * Stage Type: Automatic                                                 
 * Spinning: Yes                                                         
 * Aperture Size: 3.5 mm                                                 
 * Scrambler: Out                                                        
 * Depolarizer: Out                                                      
 RATIOS ADJUSTED USING NBS HALON CALIBRATION TABLE                       

 Source Ang: 30.00   Detect Ang:  0.00  Volt: 0.777
 Date: 21-DEC-01   Time: 10:24:24
