       224
    320.00   .025765   .004503
    330.00   .026792   .003590
    340.00   .027498   .003820
    350.00   .028355   .002995
    360.00   .029711   .001139
    370.00   .031143   .000803
    380.00   .032595   .000681
    390.00   .034146   .000677
    400.00   .035720   .002159
    410.00   .037288   .001760
    420.00   .038870   .001222
    430.00   .040352   .001409
    440.00   .042100   .001221
    450.00   .043331   .001137
    460.00   .044214   .000966
    470.00   .044856   .000923
    480.00   .045627   .000870
    490.00   .046654   .000821
    500.00   .048025   .000800
    510.00   .049505   .000780
    520.00   .051067   .000699
    530.00   .052578   .000702
    540.00   .053920   .000685
    550.00   .055163   .000688
    560.00   .056202   .000685
    570.00   .056978   .000674
    580.00   .057734   .000709
    590.00   .058330   .000697
    600.00   .058664   .000718
    610.00   .058989   .000763
    620.00   .059309   .000736
    630.00   .059509   .000786
    640.00   .059734   .000817
    650.00   .059920   .000868
    660.00   .060046   .000906
    670.00   .060207   .000934
    680.00   .060451   .001010
    690.00   .060511   .000958
    700.00   .060795   .001009
    710.00   .060983   .001056
    720.00   .061172   .001120
    730.00   .061300   .001289
    740.00   .061434   .001458
    750.00   .061313   .001532
    760.00   .061275   .001781
    770.00   .061426   .002074
    780.00   .061420   .002503
    790.00   .061401   .002845
    800.00   .061309   .003115
    810.00   .061209   .003509
    820.00   .061118   .003554
    830.00   .061088   .003971
    840.00   .060832   .005807
    850.00   .060778   .005553
    860.00   .060638   .004963
    870.00   .060543   .005453
    880.00   .060347   .004603
    890.00   .060214   .003900
    900.00   .060101   .003416
    910.00   .060026   .003068
    920.00   .059899   .002797
    930.00   .059851   .002552
    940.00   .059815   .002300
    950.00   .059742   .002053
    960.00   .059717   .001818
    970.00   .059637   .001545
    980.00   .059554   .001370
    990.00   .059499   .001293
   1000.00   .059258   .001153
   1010.00   .059246   .000994
   1020.00   .059147   .000912
   1030.00   .058949   .001663
   1040.00   .058875   .001508
   1050.00   .058966   .001452
   1060.00   .058845   .001329
   1070.00   .058743   .001260
   1080.00   .058834   .001175
   1090.00   .058716   .001148
   1100.00   .058773   .001029
   1110.00   .058753   .001070
   1120.00   .058815   .000983
   1130.00   .058930   .000928
   1140.00   .058945   .000884
   1150.00   .058868   .000867
   1160.00   .059088   .000832
   1170.00   .058868   .000850
   1180.00   .058875   .000862
   1190.00   .058828   .000832
   1200.00   .058836   .000754
   1210.00   .058858   .000724
   1220.00   .058888   .000654
   1230.00   .058829   .000695
   1240.00   .058801   .000715
   1250.00   .058779   .000612
   1260.00   .058802   .000642
   1270.00   .058804   .000625
   1280.00   .058823   .000626
   1290.00   .058810   .000626
   1300.00   .058858   .000619
   1310.00   .058866   .000649
   1320.00   .058876   .000641
   1330.00   .058890   .000609
   1340.00   .058913   .000558
   1350.00   .058954   .000598
   1360.00   .058875   .000605
   1370.00   .058880   .000617
   1380.00   .058856   .000624
   1390.00   .058955   .000673
   1400.00   .058988   .000712
   1410.00   .059075   .000741
   1420.00   .059108   .000778
   1430.00   .059202   .000779
   1440.00   .059223   .000812
   1450.00   .059235   .000808
   1460.00   .059195   .000758
   1470.00   .059161   .000810
   1480.00   .059247   .000841
   1490.00   .059270   .000830
   1500.00   .059314   .000796
   1510.00   .059246   .000855
   1520.00   .059261   .000865
   1530.00   .059311   .000857
   1540.00   .059225   .000857
   1550.00   .059261   .000851
   1560.00   .059337   .000798
   1570.00   .059434   .000855
   1580.00   .059456   .000826
   1590.00   .059609   .000837
   1600.00   .059431   .000813
   1610.00   .059612   .000899
   1620.00   .059599   .000893
   1630.00   .059663   .000950
   1640.00   .059623   .000900
   1650.00   .059711   .000924
   1660.00   .059824   .000891
   1670.00   .059818   .000920
   1680.00   .060016   .000964
   1690.00   .060079   .000893
   1700.00   .060131   .000912
   1710.00   .060009   .000946
   1720.00   .060173   .000956
   1730.00   .060117   .000932
   1740.00   .060105   .000906
   1750.00   .059952   .000888
   1760.00   .059909   .000939
   1770.00   .059905   .000943
   1780.00   .060017   .000836
   1790.00   .059926   .000918
   1800.00   .059943   .000929
   1810.00   .059859   .000767
   1820.00   .059864   .000828
   1830.00   .059828   .000856
   1840.00   .059821   .000861
   1850.00   .059736   .000878
   1860.00   .059702   .000864
   1870.00   .059635   .000835
   1880.00   .059520   .000831
   1890.00   .059445   .000836
   1900.00   .059422   .000814
   1910.00   .059384   .000801
   1920.00   .059364   .000804
   1930.00   .059403   .000757
   1940.00   .059353   .000774
   1950.00   .059262   .000777
   1960.00   .059315   .000765
   1970.00   .059404   .000772
   1980.00   .059510   .000767
   1990.00   .059513   .000788
   2000.00   .059518   .000788
   2010.00   .059590   .000739
   2020.00   .059602   .000746
   2030.00   .059608   .000767
   2040.00   .059607   .000766
   2050.00   .059575   .000775
   2060.00   .059441   .000753
   2070.00   .059558   .000723
   2080.00   .059700   .000736
   2090.00   .059579   .000752
   2100.00   .059538   .000796
   2110.00   .059686   .000541
   2120.00   .059610   .000544
   2130.00   .059818   .000611
   2140.00   .059935   .000553
   2150.00   .060035   .000523
   2160.00   .059960   .000502
   2170.00   .059878   .000452
   2180.00   .059841   .000500
   2190.00   .059924   .000529
   2200.00   .059851   .000497
   2210.00   .059894   .000593
   2220.00   .059981   .000616
   2230.00   .059956   .000558
   2240.00   .059890   .000584
   2250.00   .059931   .000565
   2260.00   .059880   .000565
   2270.00   .059919   .000549
   2280.00   .059928   .000548
   2290.00   .060002   .000527
   2300.00   .059912   .000562
   2310.00   .060014   .000563
   2320.00   .060031   .000573
   2330.00   .059993   .000575
   2340.00   .059975   .000544
   2350.00   .059973   .000582
   2360.00   .060003   .000590
   2370.00   .060054   .000577
   2380.00   .060076   .000575
   2390.00   .060256   .000574
   2400.00   .060196   .000566
   2410.00   .060229   .000642
   2420.00   .060278   .000573
   2430.00   .060223   .000554
   2440.00   .060234   .000588
   2450.00   .060135   .000592
   2460.00   .060159   .000624
   2470.00   .060137   .000678
   2480.00   .060125   .000711
   2490.00   .060192   .000548
   2500.00   .060212   .000530
   2510.00   .060190   .000549
   2520.00   .060257   .000560
   2530.00   .059988   .000591
   2540.00   .060105   .000591
   2550.00   .060062   .000676



 C1TB189.ASC             

 TB-MDD-189
 MIL 090025 (CO3) <125 um
 No depolarizer was used over the wavelength ranges of 320-400 & 1800-2550 nm
 Albedo adjusted to the visible range
 
 Source Ang:  30.00, Detect Ang:    .00, Volt:  .777
 Date: 10-DEC-19, Time: 16:10:47
 
 RATIOS ADJUSTED USING RELAB SPECTRALON CALIBRATION TABLE
