   224
    320.0   0.05692   0.00055
    330.0   0.06153   0.00048
    340.0   0.06594   0.00051
    350.0   0.07014   0.00041
    360.0   0.07518   0.00039
    370.0   0.07870   0.00036
    380.0   0.08190   0.00036
    390.0   0.08458   0.00049
    400.0   0.08682   0.00052
    410.0   0.08881   0.00051
    420.0   0.09075   0.00049
    430.0   0.09229   0.00051
    440.0   0.09376   0.00050
    450.0   0.09465   0.00044
    460.0   0.09572   0.00055
    470.0   0.09659   0.00050
    480.0   0.09763   0.00050
    490.0   0.09852   0.00050
    500.0   0.09936   0.00046
    510.0   0.10024   0.00053
    520.0   0.10104   0.00047
    530.0   0.10147   0.00042
    540.0   0.10203   0.00039
    550.0   0.10249   0.00037
    560.0   0.10268   0.00041
    570.0   0.10285   0.00040
    580.0   0.10289   0.00040
    590.0   0.10291   0.00040
    600.0   0.10323   0.00043
    610.0   0.10328   0.00049
    620.0   0.10341   0.00041
    630.0   0.10367   0.00042
    640.0   0.10376   0.00046
    650.0   0.10393   0.00045
    660.0   0.10376   0.00048
    670.0   0.10423   0.00046
    680.0   0.10488   0.00046
    690.0   0.10549   0.00045
    700.0   0.10548   0.00050
    710.0   0.10553   0.00045
    720.0   0.10543   0.00046
    730.0   0.10540   0.00049
    740.0   0.10534   0.00053
    750.0   0.10510   0.00053
    760.0   0.10508   0.00050
    770.0   0.10442   0.00049
    780.0   0.10430   0.00055
    790.0   0.10417   0.00058
    800.0   0.10404   0.00427
    810.0   0.10381   0.00389
    820.0   0.10369   0.00353
    830.0   0.10351   0.00360
    840.0   0.10347   0.00319
    850.0   0.10336   0.00267
    860.0   0.10303   0.00383
    870.0   0.10316   0.00305
    880.0   0.10330   0.00241
    890.0   0.10327   0.00199
    900.0   0.10308   0.00165
    910.0   0.10295   0.00171
    920.0   0.10268   0.00298
    930.0   0.10245   0.00294
    940.0   0.10225   0.00250
    950.0   0.10212   0.00225
    960.0   0.10221   0.00202
    970.0   0.10211   0.00172
    980.0   0.10201   0.00277
    990.0   0.10198   0.00253
   1000.0   0.10183   0.00248
   1010.0   0.10154   0.00234
   1020.0   0.10151   0.00196
   1030.0   0.10139   0.00191
   1040.0   0.10124   0.00195
   1050.0   0.10121   0.00185
   1060.0   0.10132   0.00183
   1070.0   0.10142   0.00169
   1080.0   0.10168   0.00169
   1090.0   0.10195   0.00170
   1100.0   0.10217   0.00172
   1110.0   0.10234   0.00307
   1120.0   0.10253   0.00296
   1130.0   0.10262   0.00285
   1140.0   0.10271   0.00269
   1150.0   0.10280   0.00270
   1160.0   0.10299   0.00253
   1170.0   0.10326   0.00268
   1180.0   0.10355   0.00248
   1190.0   0.10382   0.00240
   1200.0   0.10407   0.00219
   1210.0   0.10429   0.00222
   1220.0   0.10432   0.00209
   1230.0   0.10441   0.00207
   1240.0   0.10452   0.00214
   1250.0   0.10465   0.00204
   1260.0   0.10484   0.00205
   1270.0   0.10517   0.00177
   1280.0   0.10545   0.00188
   1290.0   0.10578   0.00268
   1300.0   0.10608   0.00241
   1310.0   0.10626   0.00240
   1320.0   0.10646   0.00233
   1330.0   0.10669   0.00224
   1340.0   0.10696   0.00210
   1350.0   0.10721   0.00212
   1360.0   0.10739   0.00254
   1370.0   0.10768   0.00225
   1380.0   0.10792   0.00225
   1390.0   0.10831   0.00223
   1400.0   0.10826   0.00224
   1410.0   0.10848   0.00206
   1420.0   0.10860   0.00198
   1430.0   0.10867   0.00186
   1440.0   0.10880   0.00187
   1450.0   0.10899   0.00191
   1460.0   0.10928   0.00175
   1470.0   0.10941   0.00189
   1480.0   0.10965   0.00182
   1490.0   0.10972   0.00163
   1500.0   0.10989   0.00175
   1510.0   0.10997   0.00167
   1520.0   0.11016   0.00179
   1530.0   0.11017   0.00193
   1540.0   0.11029   0.00177
   1550.0   0.11037   0.00175
   1560.0   0.11040   0.00173
   1570.0   0.11042   0.00169
   1580.0   0.11039   0.00174
   1590.0   0.11034   0.00173
   1600.0   0.11024   0.00164
   1610.0   0.11024   0.00167
   1620.0   0.11017   0.00169
   1630.0   0.11014   0.00179
   1640.0   0.11011   0.00183
   1650.0   0.11017   0.00179
   1660.0   0.11010   0.00170
   1670.0   0.11002   0.00181
   1680.0   0.10995   0.00172
   1690.0   0.10983   0.00187
   1700.0   0.10987   0.00172
   1710.0   0.10965   0.00173
   1720.0   0.10955   0.00156
   1730.0   0.10945   0.00159
   1740.0   0.10937   0.00164
   1750.0   0.10934   0.00165
   1760.0   0.10923   0.00155
   1770.0   0.10911   0.00153
   1780.0   0.10902   0.00161
   1790.0   0.10898   0.00170
   1800.0   0.10882   0.00167
   1810.0   0.10886   0.00173
   1820.0   0.10897   0.00191
   1830.0   0.10905   0.00189
   1840.0   0.10923   0.00191
   1850.0   0.10944   0.00191
   1860.0   0.10934   0.00192
   1870.0   0.10919   0.00215
   1880.0   0.10899   0.00188
   1890.0   0.10879   0.00175
   1900.0   0.10862   0.00197
   1910.0   0.10862   0.00201
   1920.0   0.10874   0.00200
   1930.0   0.10852   0.00187
   1940.0   0.10844   0.00198
   1950.0   0.10824   0.00193
   1960.0   0.10807   0.00183
   1970.0   0.10803   0.00198
   1980.0   0.10801   0.00190
   1990.0   0.10800   0.00185
   2000.0   0.10771   0.00196
   2010.0   0.10793   0.00197
   2020.0   0.10783   0.00194
   2030.0   0.10796   0.00216
   2040.0   0.10807   0.00187
   2050.0   0.10788   0.00193
   2060.0   0.10800   0.00196
   2070.0   0.10807   0.00215
   2080.0   0.10803   0.00197
   2090.0   0.10816   0.00210
   2100.0   0.10836   0.00215
   2110.0   0.10863   0.00222
   2120.0   0.10837   0.00230
   2130.0   0.10856   0.00228
   2140.0   0.10804   0.00230
   2150.0   0.10778   0.00209
   2160.0   0.10749   0.00240
   2170.0   0.10771   0.00228
   2180.0   0.10778   0.00220
   2190.0   0.10749   0.00233
   2200.0   0.10711   0.00270
   2210.0   0.10728   0.00294
   2220.0   0.10723   0.00309
   2230.0   0.10717   0.00278
   2240.0   0.10706   0.00271
   2250.0   0.10721   0.00298
   2260.0   0.10736   0.00298
   2270.0   0.10721   0.00305
   2280.0   0.10727   0.00294
   2290.0   0.10745   0.00283
   2300.0   0.10743   0.00294
   2310.0   0.10762   0.00283
   2320.0   0.10781   0.00303
   2330.0   0.10795   0.00284
   2340.0   0.10783   0.00278
   2350.0   0.10750   0.00285
   2360.0   0.10749   0.00292
   2370.0   0.10745   0.00301
   2380.0   0.10729   0.00281
   2390.0   0.10767   0.00294
   2400.0   0.10778   0.00285
   2410.0   0.10778   0.00292
   2420.0   0.10771   0.00284
   2430.0   0.10766   0.00339
   2440.0   0.10761   0.00309
   2450.0   0.10758   0.00318
   2460.0   0.10758   0.00191
   2470.0   0.10755   0.00186
   2480.0   0.10794   0.00198
   2490.0   0.10727   0.00188
   2500.0   0.10726   0.00217
   2510.0   0.10728   0.00226
   2520.0   0.10798   0.00233
   2530.0   0.10832   0.00257
   2540.0   0.10947   0.00267
   2550.0   0.11032   0.00324



 C2MT92E             .ASC                        

 MT-BEC-092-E                                                            
 Allende <75 um                                                          
 (10, 0) / Spectralon (10, 0)                                            
 * User: MEB                                                             
 * Research Type: DDAP, Student,                                         
 * NASA PI/CoI or Sponsor: BEC                                           
 * BVC: Visitor                                                          
 * Public Release Date: 04/28/2010                                       
 * Run Mode: All Scan Ranges for Each Sample                             
 * Stage Type: Automatic                                                 
 * Spinning: Yes                                                         
 * Azimuth Angle: 0.0                                                    
 * Aperture Size: 5.0                                                    
 * Scrambler: In                                                         
 * Depolarizer: Out                                                      
 * Initial Background at Home: 7.772715e-004                             
 RATIOS ADJUSTED USING NBS HALON CALIBRATION TABLE                       

 Source Ang: 10.00   Detect Ang:  0.00  Volt: 0.777
 Date: 29-APR-09   Time: 10:57:01
