   224
    320.0   0.05317   0.00048
    330.0   0.05790   0.00043
    340.0   0.06234   0.00047
    350.0   0.06699   0.00041
    360.0   0.07280   0.00184
    370.0   0.07563   0.00039
    380.0   0.07882   0.00036
    390.0   0.08150   0.00046
    400.0   0.08420   0.00048
    410.0   0.08628   0.00052
    420.0   0.08841   0.00050
    430.0   0.09015   0.00050
    440.0   0.09164   0.00054
    450.0   0.09251   0.00046
    460.0   0.09339   0.00058
    470.0   0.09434   0.00056
    480.0   0.09528   0.00053
    490.0   0.09624   0.00053
    500.0   0.09711   0.00049
    510.0   0.09804   0.00049
    520.0   0.09872   0.00047
    530.0   0.09959   0.00047
    540.0   0.10020   0.00047
    550.0   0.10062   0.00050
    560.0   0.10106   0.00053
    570.0   0.10121   0.00055
    580.0   0.10154   0.00046
    590.0   0.10191   0.00045
    600.0   0.10222   0.00049
    610.0   0.10260   0.00049
    620.0   0.10267   0.00050
    630.0   0.10283   0.00053
    640.0   0.10311   0.00047
    650.0   0.10316   0.00053
    660.0   0.10301   0.00057
    670.0   0.10355   0.00057
    680.0   0.10434   0.00054
    690.0   0.10483   0.00057
    700.0   0.10498   0.00050
    710.0   0.10527   0.00051
    720.0   0.10525   0.00049
    730.0   0.10545   0.00055
    740.0   0.10521   0.00060
    750.0   0.10518   0.00067
    760.0   0.10510   0.00049
    770.0   0.10477   0.00062
    780.0   0.10471   0.00063
    790.0   0.10445   0.00072
    800.0   0.10434   0.00070
    810.0   0.10396   0.00079
    820.0   0.10371   0.00075
    830.0   0.10367   0.00076
    840.0   0.10347   0.00346
    850.0   0.10334   0.00299
    860.0   0.10351   0.00419
    870.0   0.10364   0.00340
    880.0   0.10367   0.00279
    890.0   0.10378   0.00226
    900.0   0.10391   0.00195
    910.0   0.10384   0.00195
    920.0   0.10383   0.00302
    930.0   0.10374   0.00278
    940.0   0.10358   0.00260
    950.0   0.10333   0.00228
    960.0   0.10318   0.00214
    970.0   0.10293   0.00176
    980.0   0.10282   0.00310
    990.0   0.10271   0.00289
   1000.0   0.10246   0.00274
   1010.0   0.10235   0.00234
   1020.0   0.10219   0.00224
   1030.0   0.10202   0.00220
   1040.0   0.10190   0.00220
   1050.0   0.10185   0.00202
   1060.0   0.10185   0.00211
   1070.0   0.10188   0.00196
   1080.0   0.10208   0.00190
   1090.0   0.10242   0.00195
   1100.0   0.10264   0.00176
   1110.0   0.10295   0.00301
   1120.0   0.10333   0.00288
   1130.0   0.10351   0.00279
   1140.0   0.10368   0.00261
   1150.0   0.10395   0.00243
   1160.0   0.10417   0.00266
   1170.0   0.10431   0.00232
   1180.0   0.10455   0.00240
   1190.0   0.10486   0.00228
   1200.0   0.10512   0.00232
   1210.0   0.10534   0.00224
   1220.0   0.10555   0.00203
   1230.0   0.10566   0.00227
   1240.0   0.10581   0.00200
   1250.0   0.10591   0.00198
   1260.0   0.10610   0.00195
   1270.0   0.10635   0.00181
   1280.0   0.10645   0.00200
   1290.0   0.10659   0.00249
   1300.0   0.10692   0.00282
   1310.0   0.10719   0.00251
   1320.0   0.10748   0.00248
   1330.0   0.10786   0.00219
   1340.0   0.10799   0.00239
   1350.0   0.10800   0.00220
   1360.0   0.10790   0.00250
   1370.0   0.10808   0.00261
   1380.0   0.10823   0.00291
   1390.0   0.10870   0.00245
   1400.0   0.10889   0.00241
   1410.0   0.10934   0.00229
   1420.0   0.10962   0.00218
   1430.0   0.10988   0.00183
   1440.0   0.11016   0.00193
   1450.0   0.11040   0.00202
   1460.0   0.11068   0.00187
   1470.0   0.11075   0.00196
   1480.0   0.11097   0.00187
   1490.0   0.11112   0.00199
   1500.0   0.11131   0.00190
   1510.0   0.11147   0.00165
   1520.0   0.11177   0.00191
   1530.0   0.11184   0.00173
   1540.0   0.11190   0.00176
   1550.0   0.11193   0.00186
   1560.0   0.11204   0.00187
   1570.0   0.11204   0.00189
   1580.0   0.11209   0.00184
   1590.0   0.11209   0.00177
   1600.0   0.11216   0.00186
   1610.0   0.11220   0.00181
   1620.0   0.11225   0.00175
   1630.0   0.11221   0.00180
   1640.0   0.11231   0.00189
   1650.0   0.11240   0.00174
   1660.0   0.11243   0.00170
   1670.0   0.11241   0.00182
   1680.0   0.11230   0.00176
   1690.0   0.11224   0.00167
   1700.0   0.11212   0.00185
   1710.0   0.11186   0.00168
   1720.0   0.11169   0.00152
   1730.0   0.11142   0.00155
   1740.0   0.11144   0.00156
   1750.0   0.11150   0.00161
   1760.0   0.11155   0.00165
   1770.0   0.11150   0.00176
   1780.0   0.11133   0.00157
   1790.0   0.11123   0.00172
   1800.0   0.11104   0.00178
   1810.0   0.11100   0.00186
   1820.0   0.11089   0.00210
   1830.0   0.11120   0.00215
   1840.0   0.11093   0.00221
   1850.0   0.11123   0.00221
   1860.0   0.11116   0.00213
   1870.0   0.11141   0.00271
   1880.0   0.11133   0.00187
   1890.0   0.11089   0.00213
   1900.0   0.11087   0.00222
   1910.0   0.11098   0.00199
   1920.0   0.11095   0.00233
   1930.0   0.11062   0.00206
   1940.0   0.11060   0.00215
   1950.0   0.11042   0.00197
   1960.0   0.11033   0.00197
   1970.0   0.11024   0.00201
   1980.0   0.11034   0.00202
   1990.0   0.11026   0.00231
   2000.0   0.11052   0.00208
   2010.0   0.11072   0.00219
   2020.0   0.11038   0.00208
   2030.0   0.11032   0.00189
   2040.0   0.11072   0.00193
   2050.0   0.11022   0.00212
   2060.0   0.11060   0.00217
   2070.0   0.11104   0.00210
   2080.0   0.11086   0.00212
   2090.0   0.11093   0.00204
   2100.0   0.11103   0.00219
   2110.0   0.11098   0.00228
   2120.0   0.11108   0.00212
   2130.0   0.11075   0.00216
   2140.0   0.11080   0.00235
   2150.0   0.11003   0.00240
   2160.0   0.10995   0.00237
   2170.0   0.10980   0.00252
   2180.0   0.10984   0.00254
   2190.0   0.10997   0.00272
   2200.0   0.10956   0.00290
   2210.0   0.11007   0.00312
   2220.0   0.10990   0.00313
   2230.0   0.10969   0.00326
   2240.0   0.11017   0.00316
   2250.0   0.11053   0.00310
   2260.0   0.11076   0.00313
   2270.0   0.11090   0.00318
   2280.0   0.11099   0.00303
   2290.0   0.11119   0.00314
   2300.0   0.11113   0.00304
   2310.0   0.11139   0.00308
   2320.0   0.11165   0.00305
   2330.0   0.11157   0.00298
   2340.0   0.11142   0.00288
   2350.0   0.11153   0.00320
   2360.0   0.11156   0.00303
   2370.0   0.11143   0.00297
   2380.0   0.11109   0.00320
   2390.0   0.11142   0.00303
   2400.0   0.11200   0.00313
   2410.0   0.11184   0.00301
   2420.0   0.11201   0.00324
   2430.0   0.11220   0.00328
   2440.0   0.11228   0.00325
   2450.0   0.11224   0.00336
   2460.0   0.11221   0.00200
   2470.0   0.11187   0.00205
   2480.0   0.11251   0.00216
   2490.0   0.11192   0.00215
   2500.0   0.11194   0.00245
   2510.0   0.11202   0.00224
   2520.0   0.11236   0.00288
   2530.0   0.11236   0.00351
   2540.0   0.11237   0.00358
   2550.0   0.11285   0.00410



 C2MT92C             .ASC                        

 MT-BEC-092-C                                                            
 Allende <45 um                                                          
 (10, 0) / Spectralon (10, 0)                                            
                                                                         
                                                                         
 * User: MEB                                                             
 * Research Type: DDAP, Student,                                         
 * NASA PI/CoI or Sponsor: BEC                                           
 * BVC: Visitor                                                          
 * Public Release Date: 04/28/2010                                       
 * Run Mode: All Scan Ranges for Each Sample                             
 * Stage Type: Automatic                                                 
 * Spinning: Yes                                                         
 * Azimuth Angle: 0.0                                                    
 * Aperture Size: 5.0                                                    
 * Scrambler: In                                                         
 * Depolarizer: Out                                                      
 * Initial Background at Home: 7.756938e-004                             
 RATIOS ADJUSTED USING NBS HALON CALIBRATION TABLE                       

 Source Ang: 30.00   Detect Ang:  0.00  Volt: 0.777
 Date: 27-APR-09   Time: 15:48:26
